[DEFAULT]

version = diffpy.pdfgetx-2.0.0

# input and output specifications
dataformat = QA
inputfile = CeO2.dat
backgroundfile = background.xy
outputtype = sq

# PDF calculation setup
mode = xray
composition = CeO2
bgscale = 1
rpoly = 1.8
qmaxinst = 25
qmin = 1.1
qmax = 25
rmin = 0
rmax = 30
rstep = 0.01

# End of config --------------------------------------------------------------

#### start data
#S 1
#L Q(Ã…$^{-1}$)  S(a.u.)
1.1005 1.17023
1.116 1.14646
1.1315 1.12292
1.147 1.10032
1.1625 1.0784
1.178 1.05707
1.1935 1.03632
1.209 1.01637
1.2245 0.997271
1.24 0.978564
1.2555 0.960306
1.271 0.942564
1.2865 0.925646
1.302 0.909259
1.3175 0.893568
1.333 0.878309
1.3485 0.864014
1.364 0.849956
1.3795 0.836475
1.395 0.823743
1.4105 0.811554
1.426 0.79952
1.4415 0.788044
1.457 0.777231
1.4725 0.76698
1.488 0.757413
1.5035 0.748381
1.519 0.739752
1.5345 0.731899
1.55 0.724481
1.5655 0.717618
1.581 0.711475
1.5965 0.705926
1.612 0.701437
1.6275 0.698012
1.643 0.695136
1.6585 0.692877
1.674 0.691579
1.6895 0.692168
1.705 0.692582
1.7205 0.695054
1.736 0.699172
1.7515 0.705483
1.767 0.713509
1.7825 0.723082
1.798 0.736205
1.8135 0.751755
1.829 0.771124
1.8445 0.794528
1.86 0.822998
1.8755 0.85764
1.891 0.901204
1.9065 0.95729
1.922 1.03372
1.9375 1.14936
1.953 1.36412
1.9685 1.86823
1.984 3.23916
1.9995 5.59154
2.015 5.97651
2.0305 3.71482
2.046 2.05809
2.0615 1.42518
2.077 1.17992
2.0925 1.05291
2.108 0.970778
2.1235 0.911061
2.139 0.868467
2.1545 0.832373
2.17 0.806945
2.1855 0.788955
2.201 0.776281
2.2165 0.77115
2.232 0.774925
2.2475 0.79298
2.263 0.839959
2.2785 0.978895
2.294 1.38048
2.3095 2.07093
2.325 2.21296
2.3405 1.55872
2.356 1.02213
2.3715 0.803788
2.387 0.717023
2.4025 0.668794
2.418 0.636967
2.4335 0.613652
2.449 0.594658
2.4645 0.578614
2.48 0.564328
2.4955 0.55267
2.511 0.542677
2.5265 0.533875
2.542 0.526956
2.5575 0.52018
2.573 0.514548
2.5885 0.509528
2.604 0.504883
2.6195 0.501202
2.635 0.497999
2.6505 0.495407
2.666 0.492947
2.6815 0.491354
2.697 0.490332
2.7125 0.489003
2.728 0.488422
2.7435 0.487846
2.759 0.487955
2.7745 0.488465
2.79 0.488798
2.8055 0.490105
2.821 0.491387
2.8365 0.493627
2.852 0.49575
2.8675 0.4983
2.883 0.501195
2.8985 0.504483
2.914 0.508384
2.9295 0.513699
2.945 0.519518
2.9605 0.525972
2.976 0.53251
2.9915 0.540481
3.007 0.549641
3.0225 0.560712
3.038 0.573419
3.0535 0.587273
3.069 0.604252
3.0845 0.621804
3.1 0.643985
3.1155 0.668785
3.131 0.697427
3.1465 0.731834
3.162 0.772549
3.1775 0.823827
3.193 0.889881
3.2085 0.992103
3.224 1.17456
3.2395 1.59928
3.255 2.70248
3.2705 4.63126
3.286 5.30079
3.3015 3.69762
3.317 2.07858
3.3325 1.36123
3.348 1.09486
3.3635 0.965787
3.379 0.888748
3.3945 0.831695
3.41 0.789051
3.4255 0.755006
3.441 0.72763
3.4565 0.705369
3.472 0.686424
3.4875 0.67144
3.503 0.661294
3.5185 0.652161
3.534 0.645437
3.5495 0.641597
3.565 0.640602
3.5805 0.642164
3.596 0.645153
3.6115 0.650496
3.627 0.657991
3.6425 0.67027
3.658 0.683741
3.6735 0.702373
3.689 0.725286
3.7045 0.75229
3.72 0.785823
3.7355 0.827301
3.751 0.881547
3.7665 0.954801
3.782 1.07302
3.7975 1.31031
3.813 1.91461
3.8285 3.41528
3.844 5.32
3.8595 4.93875
3.875 2.99791
3.8905 1.77317
3.906 1.28675
3.9215 1.09543
3.937 1.00416
3.9525 0.957425
3.968 0.947365
3.9835 1.02328
3.999 1.28866
4.0145 1.64198
4.03 1.56931
4.0455 1.16253
4.061 0.878541
4.0765 0.759166
4.092 0.70298
4.1075 0.668063
4.123 0.643369
4.1385 0.623833
4.154 0.607366
4.1695 0.592979
4.185 0.581527
4.2005 0.571546
4.216 0.563913
4.2315 0.557177
4.247 0.549531
4.2625 0.54398
4.278 0.538692
4.2935 0.535315
4.309 0.532718
4.3245 0.53004
4.34 0.528232
4.3555 0.527104
4.371 0.525991
4.3865 0.525554
4.402 0.525846
4.4175 0.527354
4.433 0.529254
4.4485 0.531812
4.464 0.534678
4.4795 0.538875
4.495 0.545362
4.5105 0.552618
4.526 0.56177
4.5415 0.57431
4.557 0.591
4.5725 0.616076
4.588 0.663072
4.6035 0.781534
4.619 1.10902
4.6345 1.62613
4.65 1.67555
4.6655 1.20871
4.681 0.846876
4.6965 0.698666
4.712 0.643666
4.7275 0.617929
4.743 0.602833
4.7585 0.593427
4.774 0.58777
4.7895 0.584624
4.805 0.583638
4.8205 0.584849
4.836 0.588713
4.8515 0.594956
4.867 0.602479
4.8825 0.613511
4.898 0.627745
4.9135 0.644279
4.929 0.666205
4.9445 0.693749
4.96 0.72862
4.9755 0.77472
4.991 0.844216
5.0065 0.978403
5.022 1.31473
5.0375 2.20103
5.053 3.42404
5.0685 3.35095
5.084 2.21802
5.0995 1.42572
5.115 1.1257
5.1305 1.05477
5.146 1.12391
5.1615 1.45376
5.177 2.20998
5.1925 2.68266
5.208 2.08481
5.2235 1.34793
5.239 0.981618
5.2545 0.837763
5.27 0.766702
5.2855 0.722795
5.301 0.692819
5.3165 0.667812
5.332 0.648528
5.3475 0.634001
5.363 0.622031
5.3785 0.612927
5.394 0.606248
5.4095 0.601078
5.425 0.597945
5.4405 0.59702
5.456 0.598997
5.4715 0.60196
5.487 0.606706
5.5025 0.614234
5.518 0.623773
5.5335 0.636601
5.549 0.653495
5.5645 0.675036
5.58 0.701772
5.5955 0.739938
5.611 0.794987
5.6265 0.889527
5.642 1.113
5.6575 1.72667
5.673 2.97852
5.6885 3.67154
5.704 2.77983
5.7195 1.67221
5.735 1.12196
5.7505 0.910719
5.766 0.817937
5.7815 0.766755
5.797 0.732685
5.8125 0.709418
5.828 0.691433
5.8435 0.68016
5.859 0.675033
5.8745 0.675078
5.89 0.67791
5.9055 0.687302
5.921 0.704563
5.9365 0.728813
5.952 0.767076
5.9675 0.835794
5.983 0.987296
5.9985 1.40612
6.014 2.39985
6.0295 3.31967
6.045 2.83481
6.0605 1.74766
6.076 1.11891
6.0915 0.879141
6.107 0.776975
6.1225 0.720759
6.138 0.681321
6.1535 0.651092
6.169 0.628812
6.1845 0.610156
6.2 0.593065
6.2155 0.580127
6.231 0.569832
6.2465 0.561672
6.262 0.555229
6.2775 0.549443
6.293 0.544973
6.3085 0.54169
6.324 0.540092
6.3395 0.540131
6.355 0.540762
6.3705 0.541956
6.386 0.54496
6.4015 0.549946
6.417 0.554691
6.4325 0.561331
6.448 0.570599
6.4635 0.581398
6.479 0.597521
6.4945 0.622257
6.51 0.667035
6.5255 0.771157
6.541 1.04624
6.5565 1.51809
6.572 1.64776
6.5875 1.26199
6.603 0.900748
6.6185 0.744161
6.634 0.688045
6.6495 0.666252
6.665 0.659819
6.6805 0.658877
6.696 0.663917
6.7115 0.673366
6.727 0.687662
6.7425 0.709627
6.758 0.739756
6.7735 0.777992
6.789 0.831955
6.8045 0.925167
6.82 1.11966
6.8355 1.63494
6.851 2.81137
6.8665 3.82206
6.882 3.21675
6.8975 2.04063
6.913 1.42355
6.9285 1.33539
6.944 1.65763
6.9595 2.15023
6.975 2.05396
6.9905 1.45191
7.006 1.03846
7.0215 0.864512
7.037 0.786868
7.0525 0.741806
7.068 0.708937
7.0835 0.684609
7.099 0.666358
7.1145 0.652137
7.13 0.641701
7.1455 0.635117
7.161 0.631097
7.1765 0.628949
7.192 0.630191
7.2075 0.635693
7.223 0.644699
7.2385 0.658417
7.254 0.677761
7.2695 0.71011
7.285 0.769428
7.3005 0.917426
7.316 1.33003
7.3315 2.04744
7.347 2.30023
7.3625 1.70313
7.378 1.10934
7.3935 0.852414
7.409 0.755076
7.4245 0.709625
7.44 0.683932
7.4555 0.670094
7.471 0.661195
7.4865 0.658864
7.502 0.661351
7.5175 0.670561
7.533 0.687953
7.5485 0.720655
7.564 0.793107
7.5795 0.991956
7.595 1.44263
7.6105 1.85133
7.626 1.67507
7.6415 1.22541
7.657 1.00025
7.6725 1.07789
7.688 1.40083
7.7035 1.56673
7.719 1.27746
7.7345 0.92399
7.75 0.754414
7.7655 0.684221
7.781 0.649254
7.7965 0.626996
7.812 0.611519
7.8275 0.600219
7.843 0.589585
7.8585 0.583718
7.874 0.578894
7.8895 0.574745
7.905 0.573555
7.9205 0.57418
7.936 0.576156
7.9515 0.580869
7.967 0.58976
7.9825 0.604084
7.998 0.638232
8.0135 0.728582
8.029 0.90551
8.0445 1.02479
8.06 0.916157
8.0755 0.752917
8.091 0.669946
8.1065 0.642836
8.122 0.637367
8.1375 0.640733
8.153 0.650501
8.1685 0.66447
8.184 0.68402
8.1995 0.710754
8.215 0.751713
8.2305 0.820896
8.246 0.973885
8.2615 1.37647
8.277 2.1761
8.2925 2.68576
8.308 2.21245
8.3235 1.49574
8.339 1.22221
8.3545 1.34167
8.37 1.51973
8.3855 1.37263
8.401 1.05119
8.4165 0.853975
8.432 0.773334
8.4475 0.735658
8.463 0.713614
8.4785 0.701564
8.494 0.693907
8.5095 0.690328
8.525 0.691295
8.5405 0.696847
8.556 0.707227
8.5715 0.722342
8.587 0.744535
8.6025 0.776845
8.618 0.827364
8.6335 0.925912
8.649 1.17305
8.6645 1.79987
8.68 2.68765
8.6955 2.81344
8.711 2.01933
8.7265 1.32032
8.742 1.02056
8.7575 0.909557
8.773 0.860712
8.7885 0.839438
8.804 0.832759
8.8195 0.83986
8.835 0.862398
8.8505 0.911024
8.866 1.02539
8.8815 1.34394
8.897 2.12674
8.9125 3.0314
8.928 2.93911
8.9435 1.98415
8.959 1.28458
8.9745 0.9883
8.99 0.86361
9.0055 0.797903
9.021 0.753898
9.0365 0.721401
9.052 0.695878
9.0675 0.673848
9.083 0.657608
9.0985 0.646198
9.114 0.635559
9.1295 0.626933
9.145 0.620452
9.1605 0.615546
9.176 0.610693
9.1915 0.609389
9.207 0.609781
9.2225 0.615217
9.238 0.626116
9.2535 0.660184
9.269 0.741086
9.2845 0.824004
9.3 0.806067
9.3155 0.714925
9.331 0.65404
9.3465 0.634654
9.362 0.630816
9.3775 0.634435
9.393 0.639908
9.4085 0.650152
9.424 0.665542
9.4395 0.6939
9.455 0.745557
9.4705 0.872792
9.486 1.13674
9.5015 1.37293
9.517 1.32055
9.5325 1.15836
9.548 1.25399
9.5635 1.59924
9.579 1.71475
9.5945 1.38538
9.61 1.01274
9.6255 0.827798
9.641 0.755202
9.6565 0.71992
9.672 0.700867
9.6875 0.689605
9.703 0.684887
9.7185 0.683796
9.734 0.687902
9.7495 0.696715
9.765 0.71132
9.7805 0.736798
9.796 0.788715
9.8115 0.919989
9.827 1.24192
9.8425 1.70291
9.858 1.82194
9.8735 1.44233
9.889 1.04887
9.9045 0.869434
9.92 0.806008
9.9355 0.783051
9.951 0.777466
9.9665 0.783676
9.982 0.805515
9.9975 0.859235
10.013 0.992272
10.0285 1.33309
10.044 1.86545
10.0595 2.07223
10.075 1.70445
10.0905 1.30999
10.106 1.23306
10.1215 1.25489
10.137 1.13331
10.1525 0.937984
10.168 0.815828
10.1835 0.761597
10.199 0.73404
10.2145 0.717219
10.23 0.706592
10.2455 0.702126
10.261 0.697844
10.2765 0.700108
10.292 0.705432
10.3075 0.714865
10.323 0.737196
10.3385 0.788864
10.354 0.923241
10.3695 1.1745
10.385 1.35164
10.4005 1.23652
10.416 0.988693
10.4315 0.84394
10.447 0.795483
10.4625 0.783907
10.478 0.790294
10.4935 0.810191
10.509 0.848774
10.5245 0.929609
10.54 1.13496
10.5555 1.60786
10.571 2.16844
10.5865 2.22029
10.602 1.78594
10.6175 1.54333
10.633 1.61456
10.6485 1.57561
10.664 1.28417
10.6795 1.00482
10.695 0.868006
10.7105 0.804482
10.726 0.771592
10.7415 0.749443
10.757 0.731826
10.7725 0.722665
10.788 0.718934
10.8035 0.717942
10.819 0.72508
10.8345 0.745908
10.85 0.805308
10.8655 0.949981
10.881 1.15967
10.8965 1.23075
10.912 1.07161
10.9275 0.87591
10.943 0.776655
10.9585 0.742132
10.974 0.732043
10.9895 0.732495
11.005 0.745866
11.0205 0.781243
11.036 0.884206
11.0515 1.13265
11.067 1.45209
11.0825 1.51002
11.098 1.22914
11.1135 0.938809
11.129 0.796701
11.1445 0.739077
11.16 0.712608
11.1755 0.696666
11.191 0.685882
11.2065 0.67857
11.222 0.675828
11.2375 0.673842
11.253 0.67542
11.2685 0.679971
11.284 0.688181
11.2995 0.699155
11.315 0.718325
11.3305 0.764525
11.346 0.873504
11.3615 1.05968
11.377 1.1797
11.3925 1.09006
11.408 0.915255
11.4235 0.81388
11.439 0.782024
11.4545 0.78076
11.47 0.793961
11.4855 0.82528
11.501 0.899944
11.5165 1.08247
11.532 1.45723
11.5475 1.83677
11.563 1.82315
11.5785 1.50145
11.594 1.30234
11.6095 1.24845
11.625 1.13551
11.6405 0.97781
11.656 0.870945
11.6715 0.823327
11.687 0.802188
11.7025 0.795326
11.718 0.794847
11.7335 0.802029
11.749 0.816186
11.7645 0.840293
11.78 0.889161
11.7955 1.01169
11.811 1.31224
11.8265 1.79745
11.842 2.06978
11.8575 1.80554
11.873 1.33295
11.8885 1.05253
11.904 0.945251
11.9195 0.906889
11.935 0.898983
11.9505 0.921856
11.966 1.01043
11.9815 1.24101
11.997 1.60041
12.0125 1.7927
12.028 1.61986
12.0435 1.36538
12.059 1.26195
12.0745 1.17546
12.09 1.02112
12.1055 0.886888
12.121 0.816416
12.1365 0.779824
12.152 0.759361
12.1675 0.742309
12.183 0.731212
12.1985 0.722078
12.214 0.71441
12.2295 0.710115
12.245 0.706798
12.2605 0.704732
12.276 0.70635
12.2915 0.709029
12.307 0.711851
12.3225 0.715685
12.338 0.723892
12.3535 0.736397
12.369 0.752137
12.3845 0.77696
12.4 0.825209
12.4155 0.936744
12.431 1.14968
12.4465 1.35769
12.462 1.40664
12.4775 1.37843
12.493 1.44742
12.5085 1.46834
12.524 1.27912
12.5395 1.03325
12.555 0.887146
12.5705 0.826237
12.586 0.79833
12.6015 0.7847
12.617 0.778765
12.6325 0.781313
12.648 0.791804
12.6635 0.823973
12.679 0.913737
12.6945 1.11477
12.71 1.34914
12.7255 1.39094
12.741 1.18936
12.7565 0.967278
12.772 0.853867
12.7875 0.812179
12.803 0.80292
12.8185 0.813612
12.834 0.864777
12.8495 0.994476
12.865 1.17423
12.8805 1.2371
12.896 1.10421
12.9115 0.923574
12.927 0.816671
12.9425 0.768895
12.958 0.748128
12.9735 0.737224
12.989 0.733055
13.0045 0.726837
13.02 0.725518
13.0355 0.726453
13.051 0.730637
13.0665 0.734878
13.082 0.746377
13.0975 0.77416
13.113 0.824978
13.1285 0.879562
13.144 0.893606
13.1595 0.860955
13.175 0.828906
13.1905 0.824006
13.206 0.840804
13.2215 0.881269
13.237 0.970078
13.2525 1.17926
13.268 1.56897
13.2835 1.938
13.299 1.9475
13.3145 1.67747
13.33 1.45197
13.3455 1.30968
13.361 1.14025
13.3765 0.991367
13.392 0.907203
13.4075 0.868863
13.423 0.84866
13.4385 0.840996
13.454 0.838514
13.4695 0.847352
13.485 0.876923
13.5005 0.954562
13.516 1.11459
13.5315 1.28619
13.547 1.30628
13.5625 1.15775
13.578 0.993093
13.5935 0.910954
13.609 0.886979
13.6245 0.897293
13.64 0.946928
13.6555 1.07751
13.671 1.29443
13.6865 1.45952
13.702 1.44027
13.7175 1.33264
13.733 1.25389
13.7485 1.1597
13.764 1.02416
13.7795 0.911962
13.795 0.855065
13.8105 0.829484
13.826 0.81452
13.8415 0.808663
13.857 0.80871
13.8725 0.818135
13.888 0.849729
13.9035 0.92224
13.919 1.02262
13.9345 1.06698
13.95 1.01167
13.9655 0.915381
13.981 0.854604
13.9965 0.833835
14.012 0.838768
14.0275 0.875967
14.043 0.970472
14.0585 1.11928
14.074 1.22397
14.0895 1.19763
14.105 1.10447
14.1205 1.02755
14.136 0.957184
14.1515 0.888471
14.167 0.839232
14.1825 0.815928
14.198 0.810438
14.2135 0.814032
14.229 0.823282
14.2445 0.844283
14.26 0.895354
14.2755 1.01852
14.291 1.22974
14.3065 1.40533
14.322 1.38313
14.3375 1.18797
14.353 1.00662
14.3685 0.923546
14.384 0.905822
14.3995 0.938206
14.415 1.04868
14.4305 1.25037
14.446 1.42513
14.4615 1.39909
14.477 1.19606
14.4925 0.998047
14.508 0.888695
14.5235 0.842401
14.539 0.818038
14.5545 0.801765
14.57 0.792993
14.5855 0.787065
14.601 0.784967
14.6165 0.789091
14.632 0.803543
14.6475 0.843658
14.663 0.908796
14.6785 0.961543
14.694 0.9483
14.7095 0.891888
14.725 0.841851
14.7405 0.818906
14.756 0.819076
14.7715 0.839926
14.787 0.885571
14.8025 0.956519
14.818 1.03927
14.8335 1.13401
14.849 1.24336
14.8645 1.29196
14.88 1.20782
14.8955 1.05008
14.911 0.931106
14.9265 0.876179
14.942 0.854906
14.9575 0.849385
14.973 0.851557
14.9885 0.872591
15.004 0.928137
15.0195 1.03004
15.035 1.13748
15.0505 1.16001
15.066 1.08223
15.0815 0.983079
15.097 0.9312
15.1125 0.930886
15.128 0.982262
15.1435 1.12122
15.159 1.34621
15.1745 1.51697
15.19 1.48721
15.2055 1.30998
15.221 1.13606
15.2365 1.02313
15.252 0.944642
15.2675 0.894169
15.283 0.869021
15.2985 0.852356
15.314 0.84653
15.3295 0.846578
15.345 0.856739
15.3605 0.882994
15.376 0.933865
15.3915 0.979818
15.407 0.981403
15.4225 0.946008
15.438 0.911459
15.4535 0.90633
15.469 0.934885
15.4845 1.01648
15.5 1.19066
15.5155 1.41147
15.531 1.53789
15.5465 1.50278
15.562 1.38781
15.5775 1.26123
15.593 1.12259
15.6085 1.0019
15.624 0.923801
15.6395 0.888996
15.655 0.872758
15.6705 0.864728
15.686 0.872188
15.7015 0.909079
15.717 0.985366
15.7325 1.07339
15.748 1.09721
15.7635 1.03529
15.779 0.942004
15.7945 0.880838
15.81 0.860776
15.8255 0.871437
15.841 0.91765
15.8565 0.984557
15.872 1.01781
15.8875 0.980655
15.903 0.906791
15.9185 0.847059
15.934 0.817063
15.9495 0.805344
15.965 0.796877
15.9805 0.791991
15.996 0.790858
16.0115 0.790846
16.027 0.794378
16.0425 0.804131
16.058 0.818916
16.0735 0.836385
16.089 0.843765
16.1045 0.841023
16.12 0.83762
16.1355 0.848916
16.151 0.877514
16.1665 0.950379
16.182 1.08457
16.1975 1.23042
16.213 1.29671
16.2285 1.26091
16.244 1.17869
16.2595 1.08978
16.275 0.999402
16.2905 0.927558
16.306 0.895526
16.3215 0.883019
16.337 0.885594
16.3525 0.904829
16.368 0.955842
16.3835 1.06164
16.399 1.1978
16.4145 1.26667
16.43 1.20653
16.4455 1.08474
16.461 0.991567
16.4765 0.964092
16.492 0.993055
16.5075 1.08959
16.523 1.21863
16.5385 1.29223
16.554 1.26906
16.5695 1.19065
16.585 1.09732
16.6005 1.00902
16.616 0.93912
16.6315 0.897889
16.647 0.876429
16.6625 0.869696
16.678 0.869526
16.6935 0.879822
16.709 0.907636
16.7245 0.944788
16.74 0.963972
16.7555 0.946392
16.771 0.917209
16.7865 0.903492
16.802 0.912634
16.8175 0.955353
16.833 1.03686
16.8485 1.13035
16.864 1.19707
16.8795 1.21412
16.895 1.18105
16.9105 1.1125
16.926 1.0298
16.9415 0.959512
16.957 0.923594
16.9725 0.909914
16.988 0.917493
17.0035 0.947601
17.019 1.01961
17.0345 1.1417
17.05 1.24907
17.0655 1.25916
17.081 1.16141
17.0965 1.04583
17.112 0.982386
17.1275 0.985418
17.143 1.04213
17.1585 1.13362
17.174 1.18801
17.1895 1.14937
17.205 1.05125
17.2205 0.958945
17.236 0.909078
17.2515 0.886505
17.267 0.875626
17.2825 0.873093
17.298 0.875014
17.3135 0.886292
17.329 0.913415
17.3445 0.969831
17.36 1.02458
17.3755 1.04041
17.391 1.00721
17.4065 0.961169
17.422 0.93793
17.4375 0.965096
17.453 1.04972
17.4685 1.16984
17.484 1.2605
17.4995 1.25851
17.515 1.18375
17.5305 1.08809
17.546 0.999681
17.5615 0.937416
17.577 0.898951
17.5925 0.879522
17.608 0.86892
17.6235 0.868614
17.639 0.880913
17.6545 0.903527
17.67 0.922288
17.6855 0.922144
17.701 0.904044
17.7165 0.884456
17.732 0.881446
17.7475 0.897336
17.763 0.939134
17.7785 0.99581
17.794 1.0495
17.8095 1.07474
17.825 1.06708
17.8405 1.02445
17.856 0.962644
17.8715 0.908002
17.887 0.876034
17.9025 0.860818
17.918 0.852064
17.9335 0.85148
17.949 0.849843
17.9645 0.851486
17.98 0.854281
17.9955 0.862572
18.011 0.871225
18.0265 0.885059
18.042 0.917997
18.0575 0.990399
18.073 1.08948
18.0885 1.1771
18.104 1.20745
18.1195 1.18054
18.135 1.1126
18.1505 1.0401
18.166 0.978906
18.1815 0.941121
18.197 0.929464
18.2125 0.936581
18.228 0.965156
18.2435 1.03128
18.259 1.12021
18.2745 1.18158
18.29 1.16418
18.3055 1.09496
18.321 1.03502
18.3365 1.02773
18.352 1.09283
18.3675 1.20899
18.383 1.29322
18.3985 1.27105
18.414 1.15991
18.4295 1.04046
18.445 0.965359
18.4605 0.930079
18.476 0.911464
18.4915 0.901402
18.507 0.895062
18.5225 0.892416
18.538 0.895395
18.5535 0.897083
18.569 0.903025
18.5845 0.903599
18.6 0.908463
18.6155 0.916071
18.631 0.949408
18.6465 1.01012
18.662 1.09251
18.6775 1.16704
18.693 1.19961
18.7085 1.18029
18.724 1.12075
18.7395 1.04921
18.755 0.986076
18.7705 0.946845
18.786 0.935749
18.8015 0.944746
18.817 0.980546
18.8325 1.05032
18.848 1.112
18.8635 1.12518
18.879 1.0768
18.8945 1.00381
18.91 0.957536
18.9255 0.948195
18.941 0.964126
18.9565 0.98661
18.972 0.997583
18.9875 0.986568
19.003 0.959992
19.0185 0.933402
19.034 0.912106
19.0495 0.900558
19.065 0.895198
19.0805 0.898433
19.096 0.910534
19.1115 0.94198
19.127 0.97667
19.1425 0.998082
19.158 0.990886
19.1735 0.970659
19.189 0.958041
19.2045 0.984887
19.22 1.05315
19.2355 1.13591
19.251 1.19281
19.2665 1.19656
19.282 1.15301
19.2975 1.08135
19.313 1.01084
19.3285 0.955946
19.344 0.926003
19.3595 0.917474
19.375 0.92326
19.3905 0.945594
19.406 0.970769
19.4215 0.985831
19.437 0.973033
19.4525 0.946996
19.468 0.929886
19.4835 0.935706
19.499 0.963215
19.5145 0.994413
19.53 0.998716
19.5455 0.977582
19.561 0.938849
19.5765 0.908442
19.592 0.893903
19.6075 0.887347
19.623 0.890264
19.6385 0.890559
19.654 0.900203
19.6695 0.924842
19.685 0.950181
19.7005 0.959902
19.716 0.955105
19.7315 0.942123
19.747 0.946923
19.7625 0.974811
19.778 1.02706
19.7935 1.07464
19.809 1.09291
19.8245 1.07744
19.84 1.03667
19.8555 0.993674
19.871 0.965544
19.8865 0.957938
19.902 0.957794
19.9175 0.979867
19.933 1.03103
19.9485 1.10236
19.964 1.14911
19.9795 1.14903
19.995 1.10574
20.0105 1.06884
20.026 1.08049
20.0415 1.14089
20.057 1.22479
20.0725 1.26486
20.088 1.23862
20.1035 1.16126
20.119 1.07931
20.1345 1.01786
20.15 0.977762
20.1655 0.9534
20.181 0.946068
20.1965 0.946388
20.212 0.954655
20.2275 0.961816
20.243 0.963611
20.2585 0.957049
20.274 0.9521
20.2895 0.958535
20.305 0.984905
20.3205 1.02746
20.336 1.07202
20.3515 1.09066
20.367 1.08175
20.3825 1.04419
20.398 0.997977
20.4135 0.963246
20.429 0.944803
20.4445 0.936664
20.46 0.945907
20.4755 0.963291
20.491 0.980004
20.5065 0.984173
20.522 0.979076
20.5375 0.970677
20.553 0.977136
20.5685 1.01517
20.584 1.06342
20.5995 1.09077
20.615 1.07306
20.6305 1.0239
20.646 0.973365
20.6615 0.936468
20.677 0.922294
20.6925 0.916607
20.708 0.912411
20.7235 0.921909
20.739 0.932573
20.7545 0.937937
20.77 0.943271
20.7855 0.93878
20.801 0.940263
20.8165 0.95542
20.832 0.993918
20.8475 1.04147
20.863 1.08223
20.8785 1.09043
20.894 1.06761
20.9095 1.02766
20.925 0.986865
20.9405 0.95283
20.956 0.938158
20.9715 0.938265
20.987 0.951943
21.0025 0.968045
21.018 0.979875
21.0335 0.973923
21.049 0.961019
21.0645 0.953492
21.08 0.961912
21.0955 0.99052
21.111 1.02099
21.1265 1.03601
21.142 1.03419
21.1575 1.01181
21.173 0.979242
21.1885 0.952455
21.204 0.943214
21.2195 0.938013
21.235 0.944706
21.2505 0.963483
21.266 0.974471
21.2815 0.983144
21.297 0.98396
21.3125 0.980676
21.328 0.994286
21.3435 1.03154
21.359 1.07758
21.3745 1.09976
21.39 1.08828
21.4055 1.05184
21.421 1.00918
21.4365 0.981477
21.452 0.966212
21.4675 0.966869
21.483 0.986518
21.4985 1.01524
21.514 1.05547
21.5295 1.07719
21.545 1.06329
21.5605 1.03903
21.576 1.01856
21.5915 1.01993
21.607 1.03837
21.6225 1.04895
21.638 1.03262
21.6535 1.00308
21.669 0.971659
21.6845 0.954416
21.7 0.944489
21.7155 0.939747
21.731 0.941435
21.7465 0.946378
21.762 0.950342
21.7775 0.959752
21.793 0.960979
21.8085 0.964551
21.824 0.978372
21.8395 1.00762
21.855 1.04283
21.8705 1.08149
21.886 1.10637
21.9015 1.1065
21.917 1.06973
21.9325 1.03377
21.948 1.00397
21.9635 0.990269
21.979 1.00291
21.9945 1.03169
22.01 1.05529
22.0255 1.0644
22.041 1.05314
22.0565 1.03375
22.072 1.01938
22.0875 1.02566
22.103 1.04647
22.1185 1.05335
22.134 1.04527
22.1495 1.02626
22.165 0.996004
22.1805 0.971969
22.196 0.954578
22.2115 0.945806
22.227 0.938636
22.2425 0.935447
22.258 0.936715
22.2735 0.942508
22.289 0.949292
22.3045 0.973926
22.32 1.006
22.3355 1.05161
22.351 1.0945
22.3665 1.10261
22.382 1.07973
22.3975 1.03536
22.413 0.995547
22.4285 0.972358
22.444 0.962824
22.4595 0.968206
22.475 0.988078
22.4905 1.00721
22.506 1.01345
22.5215 1.00708
22.537 0.991614
22.5525 0.978499
22.568 0.97782
22.5835 0.980304
22.599 0.982861
22.6145 0.971304
22.63 0.954126
22.6455 0.935695
22.661 0.931567
22.6765 0.931875
22.692 0.930626
22.7075 0.931223
22.723 0.937997
22.7385 0.943033
22.754 0.948139
22.7695 0.958753
22.785 0.960786
22.8005 0.980809
22.816 1.00242
22.8315 1.02184
22.847 1.03056
22.8625 1.01597
22.878 0.992575
22.8935 0.976931
22.909 0.96466
22.9245 0.970862
22.94 0.981718
22.9555 1.00313
22.971 1.02293
22.9865 1.03481
23.002 1.03231
23.0175 1.02537
23.033 1.0397
23.0485 1.06891
23.064 1.09352
23.0795 1.10465
23.095 1.08086
23.1105 1.04183
23.126 1.00969
23.1415 0.987033
23.157 0.972864
23.1725 0.969105
23.188 0.967241
23.2035 0.97212
23.219 0.976087
23.2345 0.96723
23.25 0.969487
23.2655 0.975225
23.281 0.998885
23.2965 1.01729
23.312 1.03664
23.3275 1.05295
23.343 1.04169
23.3585 1.01572
23.374 0.990294
23.3895 0.973356
23.405 0.97098
23.4205 0.977997
23.436 0.981494
23.4515 0.983676
23.467 0.981601
23.4825 0.987219
23.498 0.999656
23.5135 1.01798
23.529 1.02912
23.5445 1.02795
23.56 1.00912
23.5755 0.987136
23.591 0.97159
23.6065 0.96833
23.622 0.974522
23.6375 0.982068
23.653 0.989986
23.6685 0.998752
23.684 1.009
23.6995 1.01587
23.715 1.02696
23.7305 1.03916
23.746 1.07679
23.7615 1.10603
23.777 1.1036
23.7925 1.07747
23.808 1.03866
23.8235 1.01342
23.839 0.993049
23.8545 0.985502
23.87 0.987273
23.8855 0.99177
23.901 0.998191
23.9165 0.997381
23.932 0.989045
23.9475 0.980991
23.963 0.982467
23.9785 0.991013
23.994 0.998285
24.0095 1.00184
24.025 0.99187
24.0405 0.972461
24.056 0.966885
24.0715 0.961808
24.087 0.965641
24.1025 0.969756
24.118 0.966167
24.1335 0.969183
24.149 0.972752
24.1645 0.977954
24.18 0.986756
24.1955 1.00119
24.211 1.0157
24.2265 1.02249
24.242 1.01498
24.2575 0.995235
24.273 0.980153
24.2885 0.983182
24.304 0.991992
24.3195 1.0108
24.335 1.02051
24.3505 1.03475
24.366 1.02949
24.3815 1.01961
24.397 1.01134
24.4125 1.01287
24.428 1.01583
24.4435 1.0089
24.459 0.995617
24.4745 0.985825
24.49 0.962439
24.5055 0.955459
24.521 0.958574
24.5365 0.96583
24.552 0.960908
24.5675 0.962145
24.583 0.968653
24.5985 0.977565
24.614 0.994136
24.6295 1.01025
24.645 1.03176
24.6605 1.0487
24.676 1.04336
24.6915 1.02339
24.707 1.00619
24.7225 0.994729
24.738 0.990368
24.7535 0.997857
24.769 0.999457
24.7845 1.01005
24.8 1.01379
24.8155 1.00859
24.831 1.01113
24.8465 1.03102
24.862 1.04602
24.8775 1.04412
24.893 1.03181
24.9085 1.00552
24.924 0.987659
24.9395 0.97214
24.955 0.970048
24.9705 0.967108
24.986 0.970235
